/////////////////////////////////////////////////////////////////////////////////
/// Profile Data Ascii Dump (XRD)                                             ///
/////////////////////////////////////////////////////////////////////////////////

  Group     : Standard
  Data      : ABKS-5MHCl
  File Name : ABKS-5MHCl.RAW

# Profile Datafile
          comment             = ok 
          date & time         = 05-31-21 15:48:04 

# Measurement Condition
    X-ray tube
          target              = Cu 
          voltage             = 40.0 (kV)
          current             = 30.0 (mA)
    Slits
          divergence slit     = 1.00000 (deg) 
          scatter slit        = 1.00000 (deg) 
          receiving slit      = 0.30000 (mm)  
    Scanning
          drive axis          = Theta-2Theta 
          scan range          =    7.000 -   70.000 
          scan mode           = Continuous Scan 
          scan speed          =   2.0000 (deg/min) 
          sampling pitch      =   0.0200 (deg) 
          preset time         =   0.60 (sec) 

# Data      [ Total No. = 3151 ]
  <2Theta>   <   I   >
     7.0000        18
     7.0200        24
     7.0400        22
     7.0600        30
     7.0800        20
     7.1000        28
     7.1200        26
     7.1400        24
     7.1600        34
     7.1800        24
     7.2000        26
     7.2200        20
     7.2400        34
     7.2600        30
     7.2800        18
     7.3000        18
     7.3200        20
     7.3400        24
     7.3600        28
     7.3800        26
     7.4000        22
     7.4200        22
     7.4400        16
     7.4600        30
     7.4800        24
     7.5000        20
     7.5200        26
     7.5400        24
     7.5600        16
     7.5800        26
     7.6000        22
     7.6200        28
     7.6400        24
     7.6600        24
     7.6800        24
     7.7000        20
     7.7200        26
     7.7400        22
     7.7600        22
     7.7800        24
     7.8000        22
     7.8200        16
     7.8400        26
     7.8600        26
     7.8800        22
     7.9000        22
     7.9200        24
     7.9400        18
     7.9600        24
     7.9800        26
     8.0000        26
     8.0200        24
     8.0400        12
     8.0600        24
     8.0800        28
     8.1000        20
     8.1200        28
     8.1400        16
     8.1600        20
     8.1800        34
     8.2000        22
     8.2200        34
     8.2400        24
     8.2600        18
     8.2800        20
     8.3000        16
     8.3200        26
     8.3400        26
     8.3600        22
     8.3800        36
     8.4000        24
     8.4200        26
     8.4400        26
     8.4600        24
     8.4800        20
     8.5000        20
     8.5200        18
     8.5400        32
     8.5600        14
     8.5800        26
     8.6000        30
     8.6200        16
     8.6400        16
     8.6600        24
     8.6800        24
     8.7000        22
     8.7200        30
     8.7400        26
     8.7600        24
     8.7800        18
     8.8000        16
     8.8200        18
     8.8400        30
     8.8600        18
     8.8800        20
     8.9000        18
     8.9200        28
     8.9400        20
     8.9600        30
     8.9800        12
     9.0000        20
     9.0200        20
     9.0400        26
     9.0600        24
     9.0800        24
     9.1000        20
     9.1200        18
     9.1400        18
     9.1600        26
     9.1800        28
     9.2000        18
     9.2200        26
     9.2400        22
     9.2600        28
     9.2800        24
     9.3000        24
     9.3200        20
     9.3400        12
     9.3600        24
     9.3800        22
     9.4000        18
     9.4200        20
     9.4400        16
     9.4600        38
     9.4800        22
     9.5000        22
     9.5200        20
     9.5400        20
     9.5600        16
     9.5800        26
     9.6000        22
     9.6200        16
     9.6400        22
     9.6600        20
     9.6800        18
     9.7000        32
     9.7200        18
     9.7400        16
     9.7600        18
     9.7800        14
     9.8000        24
     9.8200        18
     9.8400        26
     9.8600        18
     9.8800        16
     9.9000        24
     9.9200        20
     9.9400        14
     9.9600        18
     9.9800        18
    10.0000        22
    10.0200        22
    10.0400        24
    10.0600        22
    10.0800        26
    10.1000        20
    10.1200        22
    10.1400        24
    10.1600        22
    10.1800        14
    10.2000        22
    10.2200        16
    10.2400        22
    10.2600        28
    10.2800        20
    10.3000        22
    10.3200        14
    10.3400        14
    10.3600        20
    10.3800        22
    10.4000        20
    10.4200        22
    10.4400        14
    10.4600        26
    10.4800        22
    10.5000        16
    10.5200        22
    10.5400        20
    10.5600        20
    10.5800        18
    10.6000        24
    10.6200        24
    10.6400        18
    10.6600        22
    10.6800        20
    10.7000        18
    10.7200        24
    10.7400        20
    10.7600        20
    10.7800        24
    10.8000        22
    10.8200        20
    10.8400        12
    10.8600        12
    10.8800        18
    10.9000        20
    10.9200        20
    10.9400        22
    10.9600        16
    10.9800        20
    11.0000        24
    11.0200        16
    11.0400        24
    11.0600        12
    11.0800        12
    11.1000        16
    11.1200        12
    11.1400        24
    11.1600        12
    11.1800        18
    11.2000        20
    11.2200        22
    11.2400        18
    11.2600        20
    11.2800        12
    11.3000        12
    11.3200        24
    11.3400        20
    11.3600        14
    11.3800        20
    11.4000        16
    11.4200        24
    11.4400        22
    11.4600        18
    11.4800        20
    11.5000        20
    11.5200        16
    11.5400        18
    11.5600        22
    11.5800        24
    11.6000        16
    11.6200        18
    11.6400        14
    11.6600        10
    11.6800        18
    11.7000        20
    11.7200        16
    11.7400        16
    11.7600        20
    11.7800        20
    11.8000        18
    11.8200        22
    11.8400        20
    11.8600        18
    11.8800        14
    11.9000        20
    11.9200        26
    11.9400        18
    11.9600        18
    11.9800        26
    12.0000        18
    12.0200        20
    12.0400        18
    12.0600        12
    12.0800        10
    12.1000        16
    12.1200        18
    12.1400        12
    12.1600        12
    12.1800        28
    12.2000        22
    12.2200        26
    12.2400        22
    12.2600        26
    12.2800        16
    12.3000        24
    12.3200        24
    12.3400        20
    12.3600        14
    12.3800        12
    12.4000        20
    12.4200        26
    12.4400        18
    12.4600        28
    12.4800        16
    12.5000        10
    12.5200        20
    12.5400        20
    12.5600        10
    12.5800        24
    12.6000        12
    12.6200        14
    12.6400        24
    12.6600        16
    12.6800        26
    12.7000        14
    12.7200        16
    12.7400        16
    12.7600        20
    12.7800        18
    12.8000        22
    12.8200        22
    12.8400        24
    12.8600        12
    12.8800        18
    12.9000        12
    12.9200        14
    12.9400        18
    12.9600        18
    12.9800         8
    13.0000        12
    13.0200        20
    13.0400        16
    13.0600        20
    13.0800        12
    13.1000        16
    13.1200        14
    13.1400        20
    13.1600        14
    13.1800        20
    13.2000        20
    13.2200        16
    13.2400        16
    13.2600        20
    13.2800        16
    13.3000        14
    13.3200        18
    13.3400        10
    13.3600        28
    13.3800        20
    13.4000        16
    13.4200        14
    13.4400        18
    13.4600        22
    13.4800        10
    13.5000        20
    13.5200        16
    13.5400        12
    13.5600        26
    13.5800        24
    13.6000        18
    13.6200        16
    13.6400        16
    13.6600        16
    13.6800        20
    13.7000        18
    13.7200        16
    13.7400        16
    13.7600        16
    13.7800        16
    13.8000        12
    13.8200        18
    13.8400        14
    13.8600        18
    13.8800        16
    13.9000        12
    13.9200        16
    13.9400        12
    13.9600        14
    13.9800        22
    14.0000        14
    14.0200        24
    14.0400        12
    14.0600        16
    14.0800        14
    14.1000        14
    14.1200        20
    14.1400        16
    14.1600        18
    14.1800        18
    14.2000        14
    14.2200        14
    14.2400        18
    14.2600        12
    14.2800        14
    14.3000        10
    14.3200        12
    14.3400        14
    14.3600        10
    14.3800        12
    14.4000        16
    14.4200        12
    14.4400        20
    14.4600        16
    14.4800        18
    14.5000        16
    14.5200        18
    14.5400        24
    14.5600        14
    14.5800        14
    14.6000        14
    14.6200        16
    14.6400        14
    14.6600        14
    14.6800        18
    14.7000        18
    14.7200        14
    14.7400         6
    14.7600        18
    14.7800        10
    14.8000        20
    14.8200        18
    14.8400         6
    14.8600        22
    14.8800        14
    14.9000        18
    14.9200        12
    14.9400        12
    14.9600        16
    14.9800        12
    15.0000        20
    15.0200        16
    15.0400        22
    15.0600        22
    15.0800        24
    15.1000        18
    15.1200        22
    15.1400        20
    15.1600        16
    15.1800        16
    15.2000        10
    15.2200        10
    15.2400        14
    15.2600        12
    15.2800         6
    15.3000        12
    15.3200        14
    15.3400        12
    15.3600        10
    15.3800        18
    15.4000        18
    15.4200        16
    15.4400        12
    15.4600         6
    15.4800        14
    15.5000        16
    15.5200        18
    15.5400        12
    15.5600        10
    15.5800        24
    15.6000        18
    15.6200        20
    15.6400        20
    15.6600        22
    15.6800         8
    15.7000        10
    15.7200        12
    15.7400        18
    15.7600        22
    15.7800        12
    15.8000        26
    15.8200        10
    15.8400        18
    15.8600        16
    15.8800        16
    15.9000        16
    15.9200        20
    15.9400        20
    15.9600        12
    15.9800        22
    16.0000        18
    16.0200        20
    16.0400        12
    16.0600        18
    16.0800        12
    16.1000        14
    16.1200        16
    16.1400        16
    16.1600        14
    16.1800        20
    16.2000        24
    16.2200        14
    16.2400        22
    16.2600        16
    16.2800        16
    16.3000        22
    16.3200        12
    16.3400        14
    16.3600        16
    16.3800        20
    16.4000        16
    16.4200        16
    16.4400        18
    16.4600        16
    16.4800        14
    16.5000        24
    16.5200        16
    16.5400        20
    16.5600        12
    16.5800        16
    16.6000        18
    16.6200        12
    16.6400        12
    16.6600        12
    16.6800        20
    16.7000        14
    16.7200        24
    16.7400        16
    16.7600        12
    16.7800        26
    16.8000        18
    16.8200        18
    16.8400        20
    16.8600        18
    16.8800        16
    16.9000        20
    16.9200         8
    16.9400        18
    16.9600        24
    16.9800        16
    17.0000        14
    17.0200        14
    17.0400        20
    17.0600         6
    17.0800        24
    17.1000        16
    17.1200         6
    17.1400        14
    17.1600        16
    17.1800        18
    17.2000        20
    17.2200        14
    17.2400        16
    17.2600        12
    17.2800        10
    17.3000        14
    17.3200        14
    17.3400        14
    17.3600        18
    17.3800        16
    17.4000        20
    17.4200        20
    17.4400        16
    17.4600        16
    17.4800        18
    17.5000        12
    17.5200        12
    17.5400        14
    17.5600        20
    17.5800        16
    17.6000        16
    17.6200        28
    17.6400        14
    17.6600        12
    17.6800        12
    17.7000        22
    17.7200        22
    17.7400        26
    17.7600        16
    17.7800        26
    17.8000        22
    17.8200        16
    17.8400        10
    17.8600        22
    17.8800        14
    17.9000        10
    17.9200        24
    17.9400        16
    17.9600        18
    17.9800        24
    18.0000        10
    18.0200        14
    18.0400        10
    18.0600        14
    18.0800        20
    18.1000        12
    18.1200        14
    18.1400        22
    18.1600        22
    18.1800        18
    18.2000        20
    18.2200        14
    18.2400        16
    18.2600        24
    18.2800        12
    18.3000        16
    18.3200        14
    18.3400        16
    18.3600        18
    18.3800        16
    18.4000        14
    18.4200        20
    18.4400        18
    18.4600        14
    18.4800        18
    18.5000        16
    18.5200        10
    18.5400        18
    18.5600        18
    18.5800        18
    18.6000        24
    18.6200        22
    18.6400        14
    18.6600        14
    18.6800        24
    18.7000        18
    18.7200        20
    18.7400        18
    18.7600        22
    18.7800        22
    18.8000        18
    18.8200        20
    18.8400        16
    18.8600        26
    18.8800        18
    18.9000        16
    18.9200        18
    18.9400        22
    18.9600        12
    18.9800        22
    19.0000        24
    19.0200        20
    19.0400        16
    19.0600        22
    19.0800        24
    19.1000        26
    19.1200        26
    19.1400        22
    19.1600        16
    19.1800         8
    19.2000        16
    19.2200        16
    19.2400        16
    19.2600        22
    19.2800        16
    19.3000        14
    19.3200        20
    19.3400        12
    19.3600        22
    19.3800        22
    19.4000        20
    19.4200        28
    19.4400        16
    19.4600        30
    19.4800        20
    19.5000        20
    19.5200        16
    19.5400        20
    19.5600        22
    19.5800        22
    19.6000        22
    19.6200        20
    19.6400        22
    19.6600        26
    19.6800        18
    19.7000        24
    19.7200        20
    19.7400        20
    19.7600        14
    19.7800        16
    19.8000        22
    19.8200        28
    19.8400        18
    19.8600        24
    19.8800        14
    19.9000        22
    19.9200        16
    19.9400        20
    19.9600        22
    19.9800        16
    20.0000        26
    20.0200        22
    20.0400        12
    20.0600        18
    20.0800        12
    20.1000        18
    20.1200        28
    20.1400        22
    20.1600        20
    20.1800        22
    20.2000        28
    20.2200        12
    20.2400        18
    20.2600        20
    20.2800        22
    20.3000        18
    20.3200        22
    20.3400        28
    20.3600        22
    20.3800        22
    20.4000        20
    20.4200        20
    20.4400        20
    20.4600        18
    20.4800        24
    20.5000        22
    20.5200        16
    20.5400        32
    20.5600        24
    20.5800        18
    20.6000        20
    20.6200        22
    20.6400        24
    20.6600        26
    20.6800        16
    20.7000        22
    20.7200        30
    20.7400        16
    20.7600        30
    20.7800        22
    20.8000        30
    20.8200        22
    20.8400        20
    20.8600        18
    20.8800        22
    20.9000        16
    20.9200        20
    20.9400        22
    20.9600        22
    20.9800        16
    21.0000        22
    21.0200        34
    21.0400        28
    21.0600        18
    21.0800        34
    21.1000        20
    21.1200        30
    21.1400        20
    21.1600        26
    21.1800        18
    21.2000        14
    21.2200        14
    21.2400        20
    21.2600        26
    21.2800        16
    21.3000        22
    21.3200        20
    21.3400        20
    21.3600        16
    21.3800        20
    21.4000        20
    21.4200        24
    21.4400        30
    21.4600        34
    21.4800        18
    21.5000        18
    21.5200        22
    21.5400        30
    21.5600        30
    21.5800        28
    21.6000        22
    21.6200        32
    21.6400        18
    21.6600        20
    21.6800        22
    21.7000        20
    21.7200        26
    21.7400        22
    21.7600        32
    21.7800        18
    21.8000        28
    21.8200        38
    21.8400        26
    21.8600        28
    21.8800        16
    21.9000        22
    21.9200        26
    21.9400        30
    21.9600        18
    21.9800        22
    22.0000        24
    22.0200        20
    22.0400        24
    22.0600        20
    22.0800        20
    22.1000        32
    22.1200        20
    22.1400        24
    22.1600        22
    22.1800        30
    22.2000        18
    22.2200        20
    22.2400        28
    22.2600        22
    22.2800        30
    22.3000        24
    22.3200        24
    22.3400        28
    22.3600        26
    22.3800        20
    22.4000        22
    22.4200        28
    22.4400        28
    22.4600        28
    22.4800        24
    22.5000        24
    22.5200        32
    22.5400        22
    22.5600        34
    22.5800        28
    22.6000        24
    22.6200        28
    22.6400        28
    22.6600        26
    22.6800        24
    22.7000        30
    22.7200        30
    22.7400        26
    22.7600        28
    22.7800        28
    22.8000        26
    22.8200        22
    22.8400        18
    22.8600        34
    22.8800        26
    22.9000        26
    22.9200        28
    22.9400        28
    22.9600        26
    22.9800        22
    23.0000        22
    23.0200        26
    23.0400        26
    23.0600        22
    23.0800        20
    23.1000        20
    23.1200        16
    23.1400        24
    23.1600        26
    23.1800        22
    23.2000        28
    23.2200        26
    23.2400        22
    23.2600        24
    23.2800        18
    23.3000        22
    23.3200        22
    23.3400        24
    23.3600        20
    23.3800        24
    23.4000        24
    23.4200        24
    23.4400        24
    23.4600        32
    23.4800        34
    23.5000        22
    23.5200        20
    23.5400        30
    23.5600        18
    23.5800        28
    23.6000        32
    23.6200        22
    23.6400        22
    23.6600        26
    23.6800        26
    23.7000        26
    23.7200        34
    23.7400        20
    23.7600        34
    23.7800        26
    23.8000        24
    23.8200        20
    23.8400        22
    23.8600        20
    23.8800        26
    23.9000        26
    23.9200        24
    23.9400        14
    23.9600        24
    23.9800        22
    24.0000        20
    24.0200        28
    24.0400        14
    24.0600        32
    24.0800        26
    24.1000        34
    24.1200        28
    24.1400        22
    24.1600        14
    24.1800        32
    24.2000        20
    24.2200        26
    24.2400        28
    24.2600        22
    24.2800        18
    24.3000        28
    24.3200        18
    24.3400        22
    24.3600        28
    24.3800        24
    24.4000        16
    24.4200        26
    24.4400        20
    24.4600        26
    24.4800        24
    24.5000        28
    24.5200        22
    24.5400        28
    24.5600        28
    24.5800        14
    24.6000        26
    24.6200        22
    24.6400        22
    24.6600        22
    24.6800        26
    24.7000        24
    24.7200        20
    24.7400        14
    24.7600        22
    24.7800        30
    24.8000        40
    24.8200        30
    24.8400        24
    24.8600        30
    24.8800        18
    24.9000        22
    24.9200        22
    24.9400        18
    24.9600        28
    24.9800        28
    25.0000        24
    25.0200        26
    25.0400        26
    25.0600        22
    25.0800        22
    25.1000        26
    25.1200        26
    25.1400        24
    25.1600        22
    25.1800        30
    25.2000        18
    25.2200        28
    25.2400        16
    25.2600        24
    25.2800        22
    25.3000        18
    25.3200        28
    25.3400        28
    25.3600        16
    25.3800        22
    25.4000        22
    25.4200        34
    25.4400        26
    25.4600        20
    25.4800        22
    25.5000        24
    25.5200        20
    25.5400        24
    25.5600        18
    25.5800        38
    25.6000        26
    25.6200        22
    25.6400        32
    25.6600        38
    25.6800        28
    25.7000        32
    25.7200        26
    25.7400        22
    25.7600        32
    25.7800        28
    25.8000        26
    25.8200        24
    25.8400        20
    25.8600        22
    25.8800        32
    25.9000        24
    25.9200        26
    25.9400        18
    25.9600        30
    25.9800        28
    26.0000        24
    26.0200        26
    26.0400        28
    26.0600        26
    26.0800        30
    26.1000        26
    26.1200        26
    26.1400        34
    26.1600        20
    26.1800        22
    26.2000        26
    26.2200        26
    26.2400        28
    26.2600        28
    26.2800        18
    26.3000        30
    26.3200        24
    26.3400        32
    26.3600        36
    26.3800        38
    26.4000        32
    26.4200        28
    26.4400        58
    26.4600        38
    26.4800        40
    26.5000        42
    26.5200        30
    26.5400        28
    26.5600        38
    26.5800        14
    26.6000        32
    26.6200        32
    26.6400        32
    26.6600        24
    26.6800        20
    26.7000        22
    26.7200        26
    26.7400        38
    26.7600        16
    26.7800        22
    26.8000        22
    26.8200        26
    26.8400        24
    26.8600        26
    26.8800        30
    26.9000        24
    26.9200        30
    26.9400        20
    26.9600        24
    26.9800        22
    27.0000        28
    27.0200        18
    27.0400        24
    27.0600        16
    27.0800        38
    27.1000        36
    27.1200        20
    27.1400        20
    27.1600        28
    27.1800        24
    27.2000        28
    27.2200        22
    27.2400        28
    27.2600        30
    27.2800        40
    27.3000        38
    27.3200        30
    27.3400        36
    27.3600        42
    27.3800        32
    27.4000        38
    27.4200        32
    27.4400        28
    27.4600        30
    27.4800        42
    27.5000        38
    27.5200        46
    27.5400        40
    27.5600        42
    27.5800        32
    27.6000        40
    27.6200        32
    27.6400        32
    27.6600        30
    27.6800        22
    27.7000        18
    27.7200        18
    27.7400        28
    27.7600        32
    27.7800        28
    27.8000        26
    27.8200        32
    27.8400        30
    27.8600        28
    27.8800        12
    27.9000        30
    27.9200        28
    27.9400        14
    27.9600        22
    27.9800        22
    28.0000        18
    28.0200        18
    28.0400        26
    28.0600        26
    28.0800        32
    28.1000        30
    28.1200        20
    28.1400        22
    28.1600        18
    28.1800        24
    28.2000        16
    28.2200        18
    28.2400        26
    28.2600        28
    28.2800        14
    28.3000        24
    28.3200        24
    28.3400        26
    28.3600        18
    28.3800        28
    28.4000        24
    28.4200        22
    28.4400        18
    28.4600        18
    28.4800        26
    28.5000        22
    28.5200        20
    28.5400        22
    28.5600        18
    28.5800        16
    28.6000        12
    28.6200        18
    28.6400        16
    28.6600        16
    28.6800        20
    28.7000        22
    28.7200        22
    28.7400        20
    28.7600        12
    28.7800        22
    28.8000        14
    28.8200        22
    28.8400        18
    28.8600        14
    28.8800        22
    28.9000        16
    28.9200        24
    28.9400        18
    28.9600        26
    28.9800        16
    29.0000        22
    29.0200        28
    29.0400        22
    29.0600        28
    29.0800        18
    29.1000         8
    29.1200        16
    29.1400        20
    29.1600        24
    29.1800        24
    29.2000        22
    29.2200        18
    29.2400        20
    29.2600        18
    29.2800        12
    29.3000        24
    29.3200        18
    29.3400        28
    29.3600        20
    29.3800        20
    29.4000        12
    29.4200        24
    29.4400         6
    29.4600        12
    29.4800        16
    29.5000        20
    29.5200        22
    29.5400        24
    29.5600        30
    29.5800        16
    29.6000        20
    29.6200        32
    29.6400        18
    29.6600        18
    29.6800        16
    29.7000        18
    29.7200        18
    29.7400        16
    29.7600        18
    29.7800        30
    29.8000        18
    29.8200        16
    29.8400        24
    29.8600        20
    29.8800        20
    29.9000        18
    29.9200        24
    29.9400        28
    29.9600        22
    29.9800        16
    30.0000        16
    30.0200        14
    30.0400        20
    30.0600        20
    30.0800        20
    30.1000        18
    30.1200        14
    30.1400        18
    30.1600        20
    30.1800        20
    30.2000        18
    30.2200        26
    30.2400        14
    30.2600        20
    30.2800        14
    30.3000        14
    30.3200        22
    30.3400        22
    30.3600        18
    30.3800        12
    30.4000        18
    30.4200        24
    30.4400        12
    30.4600        24
    30.4800        16
    30.5000        22
    30.5200        18
    30.5400        18
    30.5600        20
    30.5800        26
    30.6000        22
    30.6200        24
    30.6400        20
    30.6600        20
    30.6800        24
    30.7000        18
    30.7200        20
    30.7400        14
    30.7600        24
    30.7800        24
    30.8000        20
    30.8200        24
    30.8400        24
    30.8600        16
    30.8800        18
    30.9000        22
    30.9200        16
    30.9400        24
    30.9600        14
    30.9800        18
    31.0000        30
    31.0200        32
    31.0400        20
    31.0600        18
    31.0800        24
    31.1000        18
    31.1200        16
    31.1400        22
    31.1600        18
    31.1800        14
    31.2000        20
    31.2200        24
    31.2400        14
    31.2600        16
    31.2800        26
    31.3000        26
    31.3200        22
    31.3400        20
    31.3600        24
    31.3800        22
    31.4000        20
    31.4200        18
    31.4400        22
    31.4600        22
    31.4800        20
    31.5000        32
    31.5200        16
    31.5400        22
    31.5600        30
    31.5800        28
    31.6000        22
    31.6200        24
    31.6400        22
    31.6600        24
    31.6800        26
    31.7000        16
    31.7200        18
    31.7400        22
    31.7600        14
    31.7800        24
    31.8000        28
    31.8200        24
    31.8400        18
    31.8600        20
    31.8800        16
    31.9000        18
    31.9200        22
    31.9400        28
    31.9600        16
    31.9800        24
    32.0000        24
    32.0200        32
    32.0400        18
    32.0600        26
    32.0800        22
    32.1000        26
    32.1200        28
    32.1400        28
    32.1600        32
    32.1800        22
    32.2000        12
    32.2200        20
    32.2400        22
    32.2600        22
    32.2800        24
    32.3000        26
    32.3200        24
    32.3400        16
    32.3600        22
    32.3800        22
    32.4000        22
    32.4200        30
    32.4400        20
    32.4600        18
    32.4800        20
    32.5000        32
    32.5200        18
    32.5400        18
    32.5600        24
    32.5800        16
    32.6000        24
    32.6200        20
    32.6400        14
    32.6600        16
    32.6800        20
    32.7000        16
    32.7200        24
    32.7400        16
    32.7600        18
    32.7800        10
    32.8000        24
    32.8200        20
    32.8400        26
    32.8600        18
    32.8800        22
    32.9000        20
    32.9200        16
    32.9400        14
    32.9600        18
    32.9800        20
    33.0000        14
    33.0200        14
    33.0400        18
    33.0600        20
    33.0800        16
    33.1000        20
    33.1200        18
    33.1400        16
    33.1600        16
    33.1800        10
    33.2000        20
    33.2200        18
    33.2400        16
    33.2600        14
    33.2800        20
    33.3000        20
    33.3200        18
    33.3400        10
    33.3600        22
    33.3800        10
    33.4000        20
    33.4200        14
    33.4400        18
    33.4600        14
    33.4800        20
    33.5000        10
    33.5200        16
    33.5400        16
    33.5600        18
    33.5800        26
    33.6000        16
    33.6200        10
    33.6400        18
    33.6600        14
    33.6800        14
    33.7000        18
    33.7200        10
    33.7400        20
    33.7600        16
    33.7800        16
    33.8000         8
    33.8200        24
    33.8400        16
    33.8600        14
    33.8800        24
    33.9000        14
    33.9200        22
    33.9400        18
    33.9600        14
    33.9800        18
    34.0000        16
    34.0200        12
    34.0400        20
    34.0600        24
    34.0800        18
    34.1000        18
    34.1200        14
    34.1400        20
    34.1600        16
    34.1800        14
    34.2000        10
    34.2200        18
    34.2400        16
    34.2600        14
    34.2800        18
    34.3000        12
    34.3200        20
    34.3400        18
    34.3600        16
    34.3800        12
    34.4000        14
    34.4200        16
    34.4400        16
    34.4600        14
    34.4800        16
    34.5000        18
    34.5200        16
    34.5400        20
    34.5600        14
    34.5800        16
    34.6000        10
    34.6200        10
    34.6400         8
    34.6600        10
    34.6800        16
    34.7000        16
    34.7200        20
    34.7400        14
    34.7600        18
    34.7800        20
    34.8000        12
    34.8200        18
    34.8400        18
    34.8600        18
    34.8800        18
    34.9000        20
    34.9200        14
    34.9400        16
    34.9600        14
    34.9800         6
    35.0000         8
    35.0200        16
    35.0400        10
    35.0600        14
    35.0800         8
    35.1000        14
    35.1200        20
    35.1400        12
    35.1600        20
    35.1800        14
    35.2000         8
    35.2200        16
    35.2400        12
    35.2600        20
    35.2800        12
    35.3000        16
    35.3200        12
    35.3400        14
    35.3600        14
    35.3800        16
    35.4000        12
    35.4200        28
    35.4400        14
    35.4600        14
    35.4800        16
    35.5000        12
    35.5200        16
    35.5400        12
    35.5600        12
    35.5800        12
    35.6000        14
    35.6200        16
    35.6400        12
    35.6600        14
    35.6800        12
    35.7000         8
    35.7200        16
    35.7400        12
    35.7600        26
    35.7800        20
    35.8000        26
    35.8200        32
    35.8400        28
    35.8600        20
    35.8800        16
    35.9000        20
    35.9200        22
    35.9400        12
    35.9600        14
    35.9800        20
    36.0000        18
    36.0200         8
    36.0400        10
    36.0600        12
    36.0800        10
    36.1000         8
    36.1200         8
    36.1400        16
    36.1600         8
    36.1800        12
    36.2000        12
    36.2200        16
    36.2400        14
    36.2600        18
    36.2800        24
    36.3000        24
    36.3200        24
    36.3400        16
    36.3600        10
    36.3800        16
    36.4000        20
    36.4200        10
    36.4400        10
    36.4600        18
    36.4800         6
    36.5000        12
    36.5200        18
    36.5400        14
    36.5600         8
    36.5800        20
    36.6000        14
    36.6200        16
    36.6400        16
    36.6600        16
    36.6800        14
    36.7000        18
    36.7200        16
    36.7400        12
    36.7600        12
    36.7800        18
    36.8000        14
    36.8200        12
    36.8400        12
    36.8600        18
    36.8800         6
    36.9000        10
    36.9200        12
    36.9400        12
    36.9600        10
    36.9800        14
    37.0000        12
    37.0200        10
    37.0400        14
    37.0600         4
    37.0800         8
    37.1000        10
    37.1200         6
    37.1400        10
    37.1600        12
    37.1800        12
    37.2000         6
    37.2200         6
    37.2400        14
    37.2600         8
    37.2800        10
    37.3000        12
    37.3200        10
    37.3400        10
    37.3600        16
    37.3800        16
    37.4000        12
    37.4200        10
    37.4400        12
    37.4600        10
    37.4800         6
    37.5000        14
    37.5200        14
    37.5400        14
    37.5600        14
    37.5800         8
    37.6000        10
    37.6200        14
    37.6400        18
    37.6600        14
    37.6800        20
    37.7000         8
    37.7200        10
    37.7400        12
    37.7600        16
    37.7800        12
    37.8000        14
    37.8200        16
    37.8400        14
    37.8600         8
    37.8800         4
    37.9000        10
    37.9200         8
    37.9400        18
    37.9600        10
    37.9800        12
    38.0000        12
    38.0200        12
    38.0400        10
    38.0600        12
    38.0800        10
    38.1000        10
    38.1200         8
    38.1400        14
    38.1600        16
    38.1800        12
    38.2000        10
    38.2200         8
    38.2400         8
    38.2600        12
    38.2800        12
    38.3000         8
    38.3200         8
    38.3400         6
    38.3600        10
    38.3800         8
    38.4000        20
    38.4200        12
    38.4400        12
    38.4600        18
    38.4800        14
    38.5000        14
    38.5200        16
    38.5400         6
    38.5600        12
    38.5800        18
    38.6000        14
    38.6200        10
    38.6400         8
    38.6600        10
    38.6800        18
    38.7000        12
    38.7200        10
    38.7400        16
    38.7600        18
    38.7800         8
    38.8000        12
    38.8200        16
    38.8400        10
    38.8600        20
    38.8800        14
    38.9000        16
    38.9200        12
    38.9400        16
    38.9600         8
    38.9800        16
    39.0000        18
    39.0200        12
    39.0400        16
    39.0600        16
    39.0800         8
    39.1000        18
    39.1200         8
    39.1400        12
    39.1600        18
    39.1800        12
    39.2000        14
    39.2200        12
    39.2400        12
    39.2600        10
    39.2800        12
    39.3000        16
    39.3200        18
    39.3400        14
    39.3600        16
    39.3800        12
    39.4000        16
    39.4200        12
    39.4400        16
    39.4600         8
    39.4800        12
    39.5000        10
    39.5200         6
    39.5400        10
    39.5600        12
    39.5800        10
    39.6000         8
    39.6200        18
    39.6400        12
    39.6600        10
    39.6800        20
    39.7000         8
    39.7200        10
    39.7400        10
    39.7600        18
    39.7800        10
    39.8000        16
    39.8200        12
    39.8400        18
    39.8600        16
    39.8800         6
    39.9000        12
    39.9200        12
    39.9400        14
    39.9600        10
    39.9800        10
    40.0000        12
    40.0200        16
    40.0400         8
    40.0600        12
    40.0800        12
    40.1000        10
    40.1200         8
    40.1400         8
    40.1600        12
    40.1800        14
    40.2000        10
    40.2200        10
    40.2400        18
    40.2600        12
    40.2800        10
    40.3000        10
    40.3200        12
    40.3400        12
    40.3600        12
    40.3800        10
    40.4000        12
    40.4200         8
    40.4400         8
    40.4600        14
    40.4800        12
    40.5000        10
    40.5200         8
    40.5400        18
    40.5600         8
    40.5800         8
    40.6000         6
    40.6200        14
    40.6400         6
    40.6600        10
    40.6800        10
    40.7000        10
    40.7200        10
    40.7400        10
    40.7600        16
    40.7800        10
    40.8000         8
    40.8200         8
    40.8400        16
    40.8600        10
    40.8800        12
    40.9000        10
    40.9200         8
    40.9400        12
    40.9600        14
    40.9800        12
    41.0000         6
    41.0200        12
    41.0400        12
    41.0600         8
    41.0800         6
    41.1000        18
    41.1200         8
    41.1400        16
    41.1600        12
    41.1800        12
    41.2000         8
    41.2200         8
    41.2400        12
    41.2600         6
    41.2800         6
    41.3000         8
    41.3200         8
    41.3400        10
    41.3600        16
    41.3800         8
    41.4000        12
    41.4200         8
    41.4400        18
    41.4600        12
    41.4800         8
    41.5000        14
    41.5200        12
    41.5400         6
    41.5600        10
    41.5800        10
    41.6000        10
    41.6200        12
    41.6400        18
    41.6600        12
    41.6800        12
    41.7000        12
    41.7200         8
    41.7400        16
    41.7600        10
    41.7800        14
    41.8000        10
    41.8200        10
    41.8400        10
    41.8600        12
    41.8800        10
    41.9000        10
    41.9200        16
    41.9400        12
    41.9600         8
    41.9800        10
    42.0000        14
    42.0200        12
    42.0400        14
    42.0600        10
    42.0800        12
    42.1000         8
    42.1200        10
    42.1400        10
    42.1600        12
    42.1800        10
    42.2000         8
    42.2200        10
    42.2400        12
    42.2600        14
    42.2800         8
    42.3000        10
    42.3200        12
    42.3400        14
    42.3600         6
    42.3800        10
    42.4000         6
    42.4200        12
    42.4400        14
    42.4600         8
    42.4800         8
    42.5000         8
    42.5200        14
    42.5400         8
    42.5600        10
    42.5800        12
    42.6000        14
    42.6200        16
    42.6400        14
    42.6600         8
    42.6800        10
    42.7000        10
    42.7200        14
    42.7400         8
    42.7600        14
    42.7800         8
    42.8000        14
    42.8200         6
    42.8400         8
    42.8600        20
    42.8800        14
    42.9000        12
    42.9200        10
    42.9400        10
    42.9600        14
    42.9800        10
    43.0000        10
    43.0200        10
    43.0400         6
    43.0600         8
    43.0800        10
    43.1000        12
    43.1200        12
    43.1400        14
    43.1600         8
    43.1800        18
    43.2000        12
    43.2200        12
    43.2400         8
    43.2600        10
    43.2800        10
    43.3000        10
    43.3200        14
    43.3400         8
    43.3600         6
    43.3800        10
    43.4000        14
    43.4200        10
    43.4400        14
    43.4600        12
    43.4800        14
    43.5000        14
    43.5200         8
    43.5400         8
    43.5600        10
    43.5800         8
    43.6000         4
    43.6200         8
    43.6400        10
    43.6600         8
    43.6800        12
    43.7000        12
    43.7200        14
    43.7400         6
    43.7600        12
    43.7800        18
    43.8000        14
    43.8200         8
    43.8400         8
    43.8600         8
    43.8800        10
    43.9000         6
    43.9200        10
    43.9400        10
    43.9600        10
    43.9800        10
    44.0000        10
    44.0200        10
    44.0400        12
    44.0600         8
    44.0800        12
    44.1000        12
    44.1200         4
    44.1400        12
    44.1600         8
    44.1800        10
    44.2000         8
    44.2200        12
    44.2400        10
    44.2600         8
    44.2800        14
    44.3000        10
    44.3200        14
    44.3400        10
    44.3600        12
    44.3800        12
    44.4000        10
    44.4200         8
    44.4400         8
    44.4600         4
    44.4800         6
    44.5000        10
    44.5200        10
    44.5400        10
    44.5600        14
    44.5800        14
    44.6000        12
    44.6200         8
    44.6400        16
    44.6600        14
    44.6800        10
    44.7000         8
    44.7200        10
    44.7400        12
    44.7600        10
    44.7800         8
    44.8000         8
    44.8200         4
    44.8400        10
    44.8600        12
    44.8800        10
    44.9000        10
    44.9200        10
    44.9400         8
    44.9600        10
    44.9800        10
    45.0000        14
    45.0200         6
    45.0400        12
    45.0600         8
    45.0800         8
    45.1000         6
    45.1200        14
    45.1400         6
    45.1600        12
    45.1800         8
    45.2000        12
    45.2200        10
    45.2400        18
    45.2600         8
    45.2800        24
    45.3000         6
    45.3200        12
    45.3400        12
    45.3600        12
    45.3800        10
    45.4000         8
    45.4200         6
    45.4400        12
    45.4600         8
    45.4800        10
    45.5000        10
    45.5200        14
    45.5400        10
    45.5600         6
    45.5800         8
    45.6000        12
    45.6200         6
    45.6400        10
    45.6600        16
    45.6800        12
    45.7000         8
    45.7200        14
    45.7400         6
    45.7600        14
    45.7800        18
    45.8000         6
    45.8200         8
    45.8400         8
    45.8600        10
    45.8800        10
    45.9000         8
    45.9200         4
    45.9400         8
    45.9600         8
    45.9800        14
    46.0000         6
    46.0200        12
    46.0400         8
    46.0600        10
    46.0800         6
    46.1000         8
    46.1200        12
    46.1400        10
    46.1600         6
    46.1800        12
    46.2000        10
    46.2200        16
    46.2400        14
    46.2600        10
    46.2800        16
    46.3000         6
    46.3200         6
    46.3400        10
    46.3600        12
    46.3800         8
    46.4000         4
    46.4200        10
    46.4400        14
    46.4600         8
    46.4800        18
    46.5000        12
    46.5200        12
    46.5400        18
    46.5600        12
    46.5800        10
    46.6000        10
    46.6200         8
    46.6400        10
    46.6600        14
    46.6800        12
    46.7000        10
    46.7200        10
    46.7400         8
    46.7600        18
    46.7800         8
    46.8000         8
    46.8200         8
    46.8400        14
    46.8600        16
    46.8800        12
    46.9000        10
    46.9200        16
    46.9400        10
    46.9600         8
    46.9800         8
    47.0000        16
    47.0200        10
    47.0400        16
    47.0600         8
    47.0800        10
    47.1000        16
    47.1200         8
    47.1400         4
    47.1600         8
    47.1800         6
    47.2000        14
    47.2200        14
    47.2400        16
    47.2600         8
    47.2800         6
    47.3000         4
    47.3200         4
    47.3400         6
    47.3600        10
    47.3800        14
    47.4000        10
    47.4200         4
    47.4400        10
    47.4600         8
    47.4800        14
    47.5000         6
    47.5200         8
    47.5400        10
    47.5600         8
    47.5800         8
    47.6000        14
    47.6200         6
    47.6400        16
    47.6600        10
    47.6800        16
    47.7000        10
    47.7200        10
    47.7400         8
    47.7600         8
    47.7800        10
    47.8000        12
    47.8200        14
    47.8400        10
    47.8600         8
    47.8800         6
    47.9000        10
    47.9200        14
    47.9400        10
    47.9600        12
    47.9800        12
    48.0000        12
    48.0200        10
    48.0400        10
    48.0600        12
    48.0800         2
    48.1000        10
    48.1200         2
    48.1400        14
    48.1600         8
    48.1800        12
    48.2000         8
    48.2200        16
    48.2400        14
    48.2600        12
    48.2800         8
    48.3000        12
    48.3200        10
    48.3400         8
    48.3600        16
    48.3800         8
    48.4000         8
    48.4200        10
    48.4400         8
    48.4600        10
    48.4800        16
    48.5000        10
    48.5200        10
    48.5400         8
    48.5600        14
    48.5800         4
    48.6000        10
    48.6200         8
    48.6400         8
    48.6600        10
    48.6800        10
    48.7000         6
    48.7200         8
    48.7400        16
    48.7600        14
    48.7800         8
    48.8000        16
    48.8200         6
    48.8400        14
    48.8600         8
    48.8800        14
    48.9000         6
    48.9200        12
    48.9400        12
    48.9600         8
    48.9800        16
    49.0000         6
    49.0200        14
    49.0400        12
    49.0600         6
    49.0800        20
    49.1000        10
    49.1200         8
    49.1400        14
    49.1600        18
    49.1800        10
    49.2000        16
    49.2200        10
    49.2400        10
    49.2600        10
    49.2800        12
    49.3000        16
    49.3200        16
    49.3400         8
    49.3600        10
    49.3800        10
    49.4000        12
    49.4200        12
    49.4400        12
    49.4600        10
    49.4800         6
    49.5000         8
    49.5200        14
    49.5400        12
    49.5600        10
    49.5800         8
    49.6000        14
    49.6200        12
    49.6400        10
    49.6600        10
    49.6800        10
    49.7000        12
    49.7200         8
    49.7400        12
    49.7600         6
    49.7800         6
    49.8000        10
    49.8200        12
    49.8400        12
    49.8600        16
    49.8800        10
    49.9000        12
    49.9200        12
    49.9400        12
    49.9600        12
    49.9800        16
    50.0000        12
    50.0200        10
    50.0400        18
    50.0600        14
    50.0800        12
    50.1000        16
    50.1200         8
    50.1400        10
    50.1600        10
    50.1800        14
    50.2000         8
    50.2200         8
    50.2400        10
    50.2600         4
    50.2800        12
    50.3000         6
    50.3200        14
    50.3400         8
    50.3600         8
    50.3800        12
    50.4000         6
    50.4200         6
    50.4400        14
    50.4600        16
    50.4800         8
    50.5000        10
    50.5200        10
    50.5400        12
    50.5600        20
    50.5800        10
    50.6000         8
    50.6200        12
    50.6400        14
    50.6600        20
    50.6800        20
    50.7000         8
    50.7200        14
    50.7400        16
    50.7600         6
    50.7800        12
    50.8000        10
    50.8200        12
    50.8400        12
    50.8600        14
    50.8800        12
    50.9000         8
    50.9200         8
    50.9400        10
    50.9600         8
    50.9800        10
    51.0000        14
    51.0200         8
    51.0400        10
    51.0600         8
    51.0800         6
    51.1000        12
    51.1200        12
    51.1400         8
    51.1600        10
    51.1800        12
    51.2000        14
    51.2200         6
    51.2400        10
    51.2600        12
    51.2800        10
    51.3000        12
    51.3200         4
    51.3400        12
    51.3600        10
    51.3800         8
    51.4000        10
    51.4200        10
    51.4400         6
    51.4600        18
    51.4800         4
    51.5000         8
    51.5200         8
    51.5400         8
    51.5600        12
    51.5800         8
    51.6000        16
    51.6200         8
    51.6400        10
    51.6600         8
    51.6800        10
    51.7000        14
    51.7200        10
    51.7400        10
    51.7600        14
    51.7800         4
    51.8000        12
    51.8200         2
    51.8400         8
    51.8600        12
    51.8800        12
    51.9000         6
    51.9200        10
    51.9400        12
    51.9600        10
    51.9800        10
    52.0000        10
    52.0200        10
    52.0400        10
    52.0600         6
    52.0800         6
    52.1000        10
    52.1200         8
    52.1400        10
    52.1600         8
    52.1800         6
    52.2000         8
    52.2200        12
    52.2400        10
    52.2600         6
    52.2800         4
    52.3000        10
    52.3200         6
    52.3400        10
    52.3600        10
    52.3800        12
    52.4000         6
    52.4200         6
    52.4400         8
    52.4600         8
    52.4800         8
    52.5000         8
    52.5200         6
    52.5400         8
    52.5600         4
    52.5800        12
    52.6000        10
    52.6200         4
    52.6400        10
    52.6600        12
    52.6800        12
    52.7000        12
    52.7200        14
    52.7400        10
    52.7600         6
    52.7800        12
    52.8000        10
    52.8200        18
    52.8400        12
    52.8600        10
    52.8800        10
    52.9000        12
    52.9200         6
    52.9400        12
    52.9600        12
    52.9800         8
    53.0000         6
    53.0200         6
    53.0400         8
    53.0600        10
    53.0800         8
    53.1000         8
    53.1200         8
    53.1400         6
    53.1600        12
    53.1800         8
    53.2000         2
    53.2200        10
    53.2400        10
    53.2600        16
    53.2800        12
    53.3000        10
    53.3200        10
    53.3400         8
    53.3600         8
    53.3800        14
    53.4000         6
    53.4200         8
    53.4400         6
    53.4600        12
    53.4800         8
    53.5000        14
    53.5200        14
    53.5400        12
    53.5600        12
    53.5800         8
    53.6000        14
    53.6200        10
    53.6400        10
    53.6600         8
    53.6800        12
    53.7000        10
    53.7200        10
    53.7400        10
    53.7600        12
    53.7800         4
    53.8000         6
    53.8200         6
    53.8400        10
    53.8600         8
    53.8800         6
    53.9000        10
    53.9200        10
    53.9400        18
    53.9600         8
    53.9800         6
    54.0000         8
    54.0200         8
    54.0400        16
    54.0600         6
    54.0800        16
    54.1000        12
    54.1200        14
    54.1400         6
    54.1600        10
    54.1800         0
    54.2000        14
    54.2200         8
    54.2400        10
    54.2600        10
    54.2800         4
    54.3000         6
    54.3200         6
    54.3400        14
    54.3600         6
    54.3800         2
    54.4000         6
    54.4200        14
    54.4400         6
    54.4600         8
    54.4800         8
    54.5000         8
    54.5200        14
    54.5400         6
    54.5600         6
    54.5800         6
    54.6000        10
    54.6200         8
    54.6400         8
    54.6600         4
    54.6800         6
    54.7000        12
    54.7200         6
    54.7400         6
    54.7600         6
    54.7800         6
    54.8000         8
    54.8200         6
    54.8400         8
    54.8600         4
    54.8800         6
    54.9000        10
    54.9200         4
    54.9400         8
    54.9600        12
    54.9800         8
    55.0000         8
    55.0200        16
    55.0400        12
    55.0600         6
    55.0800        14
    55.1000         8
    55.1200        12
    55.1400        10
    55.1600         6
    55.1800        14
    55.2000         8
    55.2200         4
    55.2400         8
    55.2600         8
    55.2800        12
    55.3000         8
    55.3200         8
    55.3400         4
    55.3600         4
    55.3800        14
    55.4000        12
    55.4200         6
    55.4400        10
    55.4600        10
    55.4800         8
    55.5000         4
    55.5200         6
    55.5400         6
    55.5600         8
    55.5800        10
    55.6000        10
    55.6200         8
    55.6400        10
    55.6600        10
    55.6800         8
    55.7000         8
    55.7200         4
    55.7400        10
    55.7600        12
    55.7800        10
    55.8000        12
    55.8200        14
    55.8400        12
    55.8600         4
    55.8800         6
    55.9000        10
    55.9200        12
    55.9400         6
    55.9600         2
    55.9800        10
    56.0000         8
    56.0200         6
    56.0400         6
    56.0600         6
    56.0800         6
    56.1000         8
    56.1200        12
    56.1400        10
    56.1600        10
    56.1800         8
    56.2000         8
    56.2200         8
    56.2400         8
    56.2600         2
    56.2800         8
    56.3000         6
    56.3200         6
    56.3400         6
    56.3600         6
    56.3800         8
    56.4000        10
    56.4200         4
    56.4400         8
    56.4600         2
    56.4800        10
    56.5000        16
    56.5200         6
    56.5400        10
    56.5600         8
    56.5800        10
    56.6000        16
    56.6200         8
    56.6400        10
    56.6600        12
    56.6800         8
    56.7000         6
    56.7200        10
    56.7400         8
    56.7600         6
    56.7800         6
    56.8000         8
    56.8200         6
    56.8400         8
    56.8600        10
    56.8800        18
    56.9000         6
    56.9200         8
    56.9400         8
    56.9600        14
    56.9800        10
    57.0000         8
    57.0200         6
    57.0400         6
    57.0600         8
    57.0800         8
    57.1000        14
    57.1200         6
    57.1400         4
    57.1600         6
    57.1800         6
    57.2000         6
    57.2200         6
    57.2400        12
    57.2600         8
    57.2800         8
    57.3000         6
    57.3200         6
    57.3400        12
    57.3600         4
    57.3800         4
    57.4000        12
    57.4200         6
    57.4400         6
    57.4600         6
    57.4800        10
    57.5000        10
    57.5200         8
    57.5400         6
    57.5600         8
    57.5800        10
    57.6000         4
    57.6200        14
    57.6400         6
    57.6600         8
    57.6800         4
    57.7000        12
    57.7200         4
    57.7400         4
    57.7600         8
    57.7800         4
    57.8000        10
    57.8200         6
    57.8400         8
    57.8600        10
    57.8800         8
    57.9000         8
    57.9200         4
    57.9400         6
    57.9600         8
    57.9800         4
    58.0000        12
    58.0200         6
    58.0400         8
    58.0600        12
    58.0800        10
    58.1000        10
    58.1200        14
    58.1400        12
    58.1600        12
    58.1800         4
    58.2000        16
    58.2200         4
    58.2400         6
    58.2600         4
    58.2800        10
    58.3000         8
    58.3200         6
    58.3400         6
    58.3600        10
    58.3800         6
    58.4000        10
    58.4200         6
    58.4400         8
    58.4600        12
    58.4800         4
    58.5000         6
    58.5200        14
    58.5400         6
    58.5600         4
    58.5800        10
    58.6000         8
    58.6200         6
    58.6400         8
    58.6600         8
    58.6800         8
    58.7000        10
    58.7200         8
    58.7400         6
    58.7600        10
    58.7800        10
    58.8000        10
    58.8200         6
    58.8400        10
    58.8600        12
    58.8800        10
    58.9000         4
    58.9200         8
    58.9400         4
    58.9600        12
    58.9800         8
    59.0000         8
    59.0200        10
    59.0400        12
    59.0600         4
    59.0800         4
    59.1000        10
    59.1200        10
    59.1400         6
    59.1600        10
    59.1800        10
    59.2000        10
    59.2200         6
    59.2400        10
    59.2600         6
    59.2800         6
    59.3000         6
    59.3200         8
    59.3400         6
    59.3600         8
    59.3800         8
    59.4000        14
    59.4200        16
    59.4400        12
    59.4600        10
    59.4800        12
    59.5000         8
    59.5200         6
    59.5400         8
    59.5600         8
    59.5800        14
    59.6000        12
    59.6200         6
    59.6400        10
    59.6600        16
    59.6800         8
    59.7000        10
    59.7200        18
    59.7400        18
    59.7600        26
    59.7800        20
    59.8000        24
    59.8200        16
    59.8400        22
    59.8600        22
    59.8800        18
    59.9000        14
    59.9200        18
    59.9400        16
    59.9600        24
    59.9800        14
    60.0000        12
    60.0200        12
    60.0400        14
    60.0600        10
    60.0800        12
    60.1000         8
    60.1200        12
    60.1400        18
    60.1600        12
    60.1800        14
    60.2000         8
    60.2200         6
    60.2400        14
    60.2600        10
    60.2800         4
    60.3000        14
    60.3200         6
    60.3400         8
    60.3600         4
    60.3800         8
    60.4000        10
    60.4200        16
    60.4400        12
    60.4600        12
    60.4800        10
    60.5000        12
    60.5200        10
    60.5400        14
    60.5600        14
    60.5800         8
    60.6000        10
    60.6200         8
    60.6400         8
    60.6600         8
    60.6800        16
    60.7000         4
    60.7200         6
    60.7400         8
    60.7600         8
    60.7800        10
    60.8000        18
    60.8200        12
    60.8400         6
    60.8600        14
    60.8800        10
    60.9000        10
    60.9200         8
    60.9400        10
    60.9600        12
    60.9800        10
    61.0000        12
    61.0200        12
    61.0400        18
    61.0600         6
    61.0800        10
    61.1000        14
    61.1200        14
    61.1400        14
    61.1600        10
    61.1800        12
    61.2000        12
    61.2200         8
    61.2400         8
    61.2600         8
    61.2800         6
    61.3000        10
    61.3200        12
    61.3400         2
    61.3600        10
    61.3800         8
    61.4000        10
    61.4200        10
    61.4400        12
    61.4600        12
    61.4800        10
    61.5000         6
    61.5200        12
    61.5400         8
    61.5600         6
    61.5800         8
    61.6000         6
    61.6200         6
    61.6400        10
    61.6600        12
    61.6800        10
    61.7000         4
    61.7200        14
    61.7400        12
    61.7600         8
    61.7800        10
    61.8000         8
    61.8200        10
    61.8400        14
    61.8600        14
    61.8800         8
    61.9000        18
    61.9200        14
    61.9400        10
    61.9600         8
    61.9800        10
    62.0000         6
    62.0200        10
    62.0400         8
    62.0600         6
    62.0800        10
    62.1000        10
    62.1200        10
    62.1400        12
    62.1600         4
    62.1800        12
    62.2000        10
    62.2200        12
    62.2400        10
    62.2600         6
    62.2800        12
    62.3000         4
    62.3200         6
    62.3400         2
    62.3600        12
    62.3800         6
    62.4000         8
    62.4200        12
    62.4400         8
    62.4600        14
    62.4800         4
    62.5000        12
    62.5200        10
    62.5400         6
    62.5600         4
    62.5800        10
    62.6000         8
    62.6200         6
    62.6400        16
    62.6600         8
    62.6800         8
    62.7000         8
    62.7200         8
    62.7400        10
    62.7600         6
    62.7800        14
    62.8000        14
    62.8200        12
    62.8400        12
    62.8600        10
    62.8800         6
    62.9000        10
    62.9200         6
    62.9400         8
    62.9600        10
    62.9800        16
    63.0000         8
    63.0200        16
    63.0400        10
    63.0600        12
    63.0800        14
    63.1000         8
    63.1200        10
    63.1400        16
    63.1600         4
    63.1800        12
    63.2000        12
    63.2200         6
    63.2400         4
    63.2600        10
    63.2800         8
    63.3000         6
    63.3200         6
    63.3400         6
    63.3600        14
    63.3800         6
    63.4000        10
    63.4200        10
    63.4400        10
    63.4600         8
    63.4800         8
    63.5000        10
    63.5200         8
    63.5400        10
    63.5600         8
    63.5800        12
    63.6000        16
    63.6200         6
    63.6400         8
    63.6600         8
    63.6800         6
    63.7000         6
    63.7200         4
    63.7400         6
    63.7600        14
    63.7800         8
    63.8000        12
    63.8200         8
    63.8400         6
    63.8600         8
    63.8800         4
    63.9000        14
    63.9200         6
    63.9400        10
    63.9600         6
    63.9800        14
    64.0000        10
    64.0200        14
    64.0400         8
    64.0600        12
    64.0800         6
    64.1000        12
    64.1200        10
    64.1400         8
    64.1600         8
    64.1800        12
    64.2000         6
    64.2200         6
    64.2400        10
    64.2600        14
    64.2800        12
    64.3000         8
    64.3200        10
    64.3400        10
    64.3600         8
    64.3800         6
    64.4000         8
    64.4200        10
    64.4400         8
    64.4600         4
    64.4800         8
    64.5000        10
    64.5200        16
    64.5400         8
    64.5600         6
    64.5800         6
    64.6000        10
    64.6200        14
    64.6400         8
    64.6600         4
    64.6800         8
    64.7000        10
    64.7200         6
    64.7400         8
    64.7600        10
    64.7800        12
    64.8000         6
    64.8200        16
    64.8400         8
    64.8600         8
    64.8800        10
    64.9000        12
    64.9200        12
    64.9400         8
    64.9600         4
    64.9800        10
    65.0000        10
    65.0200         6
    65.0400        12
    65.0600         4
    65.0800        12
    65.1000        10
    65.1200         8
    65.1400         6
    65.1600        14
    65.1800        14
    65.2000         4
    65.2200        12
    65.2400         6
    65.2600        14
    65.2800         8
    65.3000        10
    65.3200         6
    65.3400        14
    65.3600         6
    65.3800         6
    65.4000        10
    65.4200         8
    65.4400         8
    65.4600         4
    65.4800         6
    65.5000         8
    65.5200         6
    65.5400        10
    65.5600         8
    65.5800        12
    65.6000        10
    65.6200         4
    65.6400        10
    65.6600         8
    65.6800         6
    65.7000        10
    65.7200        12
    65.7400         4
    65.7600         8
    65.7800        12
    65.8000        12
    65.8200         2
    65.8400         6
    65.8600        12
    65.8800         8
    65.9000         8
    65.9200         8
    65.9400         8
    65.9600         8
    65.9800         8
    66.0000        10
    66.0200        10
    66.0400         8
    66.0600         8
    66.0800         6
    66.1000         8
    66.1200         8
    66.1400         8
    66.1600         8
    66.1800         6
    66.2000        12
    66.2200        16
    66.2400         6
    66.2600        10
    66.2800         4
    66.3000        10
    66.3200         4
    66.3400         8
    66.3600         8
    66.3800         8
    66.4000         6
    66.4200         8
    66.4400         8
    66.4600        12
    66.4800        12
    66.5000        10
    66.5200         8
    66.5400        12
    66.5600         6
    66.5800         2
    66.6000         2
    66.6200        10
    66.6400         8
    66.6600        10
    66.6800         8
    66.7000         4
    66.7200         8
    66.7400         8
    66.7600        14
    66.7800         4
    66.8000         8
    66.8200         8
    66.8400        10
    66.8600        10
    66.8800         8
    66.9000         6
    66.9200        12
    66.9400         6
    66.9600        12
    66.9800         4
    67.0000         6
    67.0200         6
    67.0400         8
    67.0600         4
    67.0800        10
    67.1000         2
    67.1200         4
    67.1400         8
    67.1600         2
    67.1800         8
    67.2000         4
    67.2200         8
    67.2400         8
    67.2600        10
    67.2800         0
    67.3000        12
    67.3200        10
    67.3400         8
    67.3600         8
    67.3800         8
    67.4000         8
    67.4200         8
    67.4400        10
    67.4600        10
    67.4800        10
    67.5000         6
    67.5200         6
    67.5400        12
    67.5600        10
    67.5800         8
    67.6000         2
    67.6200         6
    67.6400         8
    67.6600         4
    67.6800         6
    67.7000         6
    67.7200         4
    67.7400         8
    67.7600         6
    67.7800         6
    67.8000         8
    67.8200        10
    67.8400         8
    67.8600        10
    67.8800         4
    67.9000         2
    67.9200        10
    67.9400         8
    67.9600         8
    67.9800         8
    68.0000        12
    68.0200         8
    68.0400         6
    68.0600        10
    68.0800         8
    68.1000         8
    68.1200         6
    68.1400        12
    68.1600        10
    68.1800         4
    68.2000        14
    68.2200        10
    68.2400         6
    68.2600        10
    68.2800         6
    68.3000         8
    68.3200         4
    68.3400         6
    68.3600        14
    68.3800         4
    68.4000         2
    68.4200         6
    68.4400         4
    68.4600         4
    68.4800        10
    68.5000         4
    68.5200         8
    68.5400        10
    68.5600         8
    68.5800         0
    68.6000        12
    68.6200        10
    68.6400         6
    68.6600         8
    68.6800         4
    68.7000         6
    68.7200        12
    68.7400        10
    68.7600         6
    68.7800         4
    68.8000        10
    68.8200         2
    68.8400         8
    68.8600         8
    68.8800         8
    68.9000         2
    68.9200         8
    68.9400         4
    68.9600         8
    68.9800        12
    69.0000         8
    69.0200         8
    69.0400        12
    69.0600         6
    69.0800         6
    69.1000         6
    69.1200        10
    69.1400        10
    69.1600        10
    69.1800         4
    69.2000         4
    69.2200         6
    69.2400         6
    69.2600        12
    69.2800         8
    69.3000         8
    69.3200         4
    69.3400        10
    69.3600         8
    69.3800         8
    69.4000         4
    69.4200        10
    69.4400         8
    69.4600         6
    69.4800         6
    69.5000         6
    69.5200        10
    69.5400        10
    69.5600         6
    69.5800         6
    69.6000         2
    69.6200         4
    69.6400         4
    69.6600         6
    69.6800         8
    69.7000         8
    69.7200         4
    69.7400         6
    69.7600         8
    69.7800         8
    69.8000         6
    69.8200         8
    69.8400         8
    69.8600         6
    69.8800         4
    69.9000        12
    69.9200        10
    69.9400         4
    69.9600         4
    69.9800        10
    70.0000         6
